ALV-5000/E-WIN Data
Date :	"29/06/18"
Time :	"08:26:11"
Samplename : 	""
SampMemo(0) : 	""
SampMemo(1) : 	""
SampMemo(2) : 	""
SampMemo(3) : 	""
SampMemo(4) : 	""
SampMemo(5) : 	""
SampMemo(6) : 	""
SampMemo(7) : 	""
SampMemo(8) : 	""
SampMemo(9) : 	""
Temperature [K] :	     298.16000
Viscosity [cp]  :	       0.89000
Refractive Index:	       1.33200
Wavelength [nm] :	     632.80000
Angle [°]       :	      90.00000
Duration [s]    :	        30
Runs            :	         1
Mode            :	"SINGLE AUTO CH1"
MeanCR0 [kHz]   :	     109.35663
MeanCR1 [kHz]   :	       0.00000

"Correlation"
  2.00000E-004	  9.17351E-002
  4.00000E-004	  3.81171E-002
  6.00000E-004	  2.61411E-002
  8.00000E-004	  2.86683E-002
  1.00000E-003	  2.44283E-002
  1.20000E-003	  2.62394E-002
  1.40000E-003	  2.09885E-002
  1.60000E-003	  2.23223E-002
  1.80000E-003	  2.02163E-002
  2.00000E-003	  2.63658E-002
  2.20000E-003	  1.95144E-002
  2.40000E-003	  2.04550E-002
  2.60000E-003	  2.29541E-002
  2.80000E-003	  1.72118E-002
  3.00000E-003	  1.99355E-002
  3.20000E-003	  2.01965E-002
  3.60000E-003	  2.12074E-002
  4.00000E-003	  2.48858E-002
  4.40000E-003	  2.07581E-002
  4.80000E-003	  1.56827E-002
  5.20000E-003	  1.63075E-002
  5.60000E-003	  2.25482E-002
  6.00000E-003	  2.21972E-002
  6.40000E-003	  2.08647E-002
  7.20000E-003	  2.03557E-002
  8.00000E-003	  1.84288E-002
  8.80000E-003	  1.92606E-002
  9.60000E-003	  1.55225E-002
  1.04000E-002	  1.99731E-002
  1.12000E-002	  1.62912E-002
  1.20000E-002	  2.10928E-002
  1.28000E-002	  1.72858E-002
  1.44000E-002	  1.54928E-002
  1.60000E-002	  1.56069E-002
  1.76000E-002	  1.73935E-002
  1.92000E-002	  1.64019E-002
  2.08000E-002	  1.69600E-002
  2.24000E-002	  1.72829E-002
  2.40000E-002	  1.87223E-002
  2.56000E-002	  1.56915E-002
  2.88000E-002	  1.49839E-002
  3.20000E-002	  1.31497E-002
  3.52000E-002	  1.29964E-002
  3.84000E-002	  1.26401E-002
  4.16000E-002	  1.30011E-002
  4.48000E-002	  1.06044E-002
  4.80000E-002	  1.18633E-002
  5.12000E-002	  1.13322E-002
  5.76000E-002	  9.78124E-003
  6.40000E-002	  1.11137E-002
  7.04000E-002	  9.99171E-003
  7.68000E-002	  9.77717E-003
  8.32000E-002	  7.91779E-003
  8.96000E-002	  8.58116E-003
  9.60000E-002	  7.68614E-003
  1.02400E-001	  7.14523E-003
  1.15200E-001	  7.74103E-003
  1.28000E-001	  6.50968E-003
  1.40800E-001	  5.49171E-003
  1.53600E-001	  5.22773E-003
  1.66400E-001	  5.06803E-003
  1.79200E-001	  5.27279E-003
  1.92000E-001	  4.60139E-003
  2.04800E-001	  4.00909E-003
  2.30400E-001	  3.81841E-003
  2.56000E-001	  3.87580E-003
  2.81600E-001	  3.32209E-003
  3.07200E-001	  2.88633E-003
  3.32800E-001	  3.21427E-003
  3.58400E-001	  2.59107E-003
  3.84000E-001	  2.23755E-003
  4.09600E-001	  2.75631E-003
  4.60800E-001	  2.00788E-003
  5.12000E-001	  1.84458E-003
  5.63200E-001	  1.55501E-003
  6.14400E-001	  1.43638E-003
  6.65600E-001	  1.26830E-003
  7.16800E-001	  9.81266E-004
  7.68000E-001	  9.52539E-004
  8.19200E-001	  9.83725E-004
  9.21600E-001	  1.02743E-003
  1.02400E+000	  8.50236E-004
  1.12640E+000	  1.04199E-003
  1.22880E+000	  8.10128E-004
  1.33120E+000	  9.87905E-004
  1.43360E+000	  6.68008E-004
  1.53600E+000	  2.54618E-004
  1.63840E+000	  4.79688E-004
  1.84320E+000	  5.61938E-004
  2.04800E+000	  5.22703E-004
  2.25280E+000	  3.25033E-004
  2.45760E+000	  4.44200E-004
  2.66240E+000	  2.55739E-004
  2.86720E+000	  4.34891E-004
  3.07200E+000	  4.55524E-004
  3.22560E+000	  2.54219E-004
  3.63520E+000	  1.37028E-004
  4.04480E+000	  1.21596E-004
  4.45440E+000	  3.55830E-004
  4.86400E+000	  3.54005E-004
  5.27360E+000	  1.18237E-004
  5.68320E+000	  2.58157E-004
  6.09280E+000	  2.17037E-006
  6.50240E+000	  1.58023E-004
  7.32160E+000	 -2.29943E-005
  8.14080E+000	  2.50203E-005
  8.96000E+000	  5.07757E-005
  9.77920E+000	  1.94589E-005
  1.05984E+001	 -6.09708E-005
  1.14176E+001	 -1.78960E-004
  1.22368E+001	  1.54757E-004
  1.30560E+001	  2.14501E-005
  1.46944E+001	  1.60637E-004
  1.63328E+001	  7.01318E-005
  1.79712E+001	  3.72077E-005
  1.96096E+001	  8.22542E-005
  2.12480E+001	  3.97323E-005
  2.28864E+001	  6.21311E-006
  2.45248E+001	 -5.40682E-005
  2.61632E+001	  6.10241E-005
  2.94400E+001	 -5.20563E-006
  3.27168E+001	  3.39431E-005
  3.59936E+001	  2.38825E-005
  3.92704E+001	 -1.19922E-004
  4.25472E+001	 -6.51742E-005
  4.58240E+001	 -3.50654E-005
  4.91008E+001	 -2.73788E-005
  5.23776E+001	  1.90973E-005
  5.89312E+001	 -3.93048E-005
  6.54848E+001	  3.66227E-006
  7.20384E+001	 -1.29763E-006
  7.85920E+001	 -2.77749E-005
  8.51456E+001	 -3.83063E-005
  9.16992E+001	  4.66898E-005
  9.82528E+001	  2.44437E-005
  1.04806E+002	 -9.53036E-006
  1.17914E+002	  1.92902E-005
  1.31021E+002	  3.32436E-005
  1.44128E+002	  1.81600E-005
  1.57235E+002	  1.12157E-005
  1.70342E+002	  7.43965E-006
  1.83450E+002	 -1.39310E-005
  1.96557E+002	  2.98027E-006
  2.09664E+002	 -4.33416E-006
  2.35878E+002	 -3.04312E-005
  2.62093E+002	  9.19929E-006
  2.88307E+002	  2.66529E-006
  3.14522E+002	  1.46417E-005
  3.40736E+002	  2.19438E-005
  3.66950E+002	  1.14803E-005
  3.93165E+002	 -2.48834E-005
  4.19379E+002	 -3.20854E-005
  4.71808E+002	 -7.97998E-007
  5.24237E+002	 -1.48934E-005
  5.76666E+002	 -6.95258E-006
  6.29094E+002	 -8.35799E-006
  6.81523E+002	  7.52486E-006
  7.33952E+002	 -1.31059E-005
  7.86381E+002	 -4.81921E-005
  8.38810E+002	 -4.27122E-005
  9.43667E+002	 -3.82378E-006
  1.04852E+003	  2.13924E-005
  1.15338E+003	 -1.16841E-005
  1.25824E+003	 -1.92754E-005
  1.36310E+003	 -2.43517E-006
  1.46796E+003	  2.51121E-006
  1.57281E+003	  2.24338E-006
  1.67767E+003	  4.46728E-006
  1.88739E+003	 -7.23105E-006
  2.09710E+003	  6.09446E-006
  2.30682E+003	 -3.99739E-007
  2.51653E+003	  1.17506E-006
  2.72625E+003	 -2.81755E-006
  2.93596E+003	  9.80716E-006
  3.14568E+003	 -1.69278E-005
  3.35539E+003	  7.12483E-007
  3.77482E+003	 -3.45293E-006
  4.19425E+003	 -2.28882E-006
  4.61368E+003	 -1.02427E-005
  5.03311E+003	 -2.54400E-006
  5.45254E+003	  1.48187E-005
  5.87197E+003	 -2.82231E-006
  6.29140E+003	  1.60314E-006

"Count Rate"
       0.11719	     110.65717
       0.23438	     110.44376
       0.35156	     110.29010
       0.46875	     111.02423
       0.58594	     109.70109
       0.70313	     109.50475
       0.82031	     109.77792
       0.93750	     110.78521
       1.05469	     109.88036
       1.17188	     109.61572
       1.28906	     108.43771
       1.40625	     108.84745
       1.52344	     110.69131
       1.64063	     110.08523
       1.75781	     109.88036
       1.87500	     111.11813
       1.99219	     109.44500
       2.10938	     107.54138
       2.22656	     109.16330
       2.34375	     109.21452
       2.46094	     110.34132
       2.57813	     107.07188
       2.69531	     109.97425
       2.81250	     108.15601
       2.92969	     108.90720
       3.04688	     108.51453
       3.16406	     107.43895
       3.28125	     108.16454
       3.39844	     108.89867
       3.51563	     107.75479
       3.63281	     110.88765
       3.75000	     110.20473
       3.86719	     111.10959
       3.98438	     109.69255
       4.10156	     108.31819
       4.21875	     109.47914
       4.33594	     108.89867
       4.45313	     109.60719
       4.57031	     108.59989
       4.68750	     108.94135
       4.80469	     109.44500
       4.92188	     109.72670
       5.03906	     111.20349
       5.15625	     107.18285
       5.27344	     110.77667
       5.39063	     109.88889
       5.50781	     110.60594
       5.62500	     108.72794
       5.74219	     109.29134
       5.85938	     110.39253
       5.97656	     108.67672
       6.09375	     109.91450
       6.21094	     108.51453
       6.32813	     108.32673
       6.44531	     108.43771
       6.56250	     107.01213
       6.67969	     109.59865
       6.79688	     109.43646
       6.91406	     110.87057
       7.03125	     110.07669
       7.14844	     108.68526
       7.26563	     107.13164
       7.38281	     109.15476
       7.50000	     108.00235
       7.61719	     110.13644
       7.73438	     108.48038
       7.85156	     110.36693
       7.96875	     111.55348
       8.08594	     107.78040
       8.20313	     108.42917
       8.32031	     111.78397
       8.43750	     108.92428
       8.55469	     107.19993
       8.67188	     108.87306
       8.78906	     109.75230
       8.90625	     110.35839
       9.02344	     108.44624
       9.14063	     108.54014
       9.25781	     110.64863
       9.37500	     109.00964
       9.49219	     109.82913
       9.60938	     105.83411
       9.72656	     107.08895
       9.84375	     109.76084
       9.96094	     110.34132
      10.07813	     109.53889
      10.19531	     107.61821
      10.31250	     109.53036
      10.42969	     113.50832
      10.54688	     112.84248
      10.66406	     110.18766
      10.78125	     109.33402
      10.89844	     111.35715
      11.01563	     110.19620
      11.13281	     108.65965
      11.25000	     107.73772
      11.36719	     110.74253
      11.48438	     109.29988
      11.60156	     109.65841
      11.71875	     108.16454
      11.83594	     109.37671
      11.95313	     107.50724
      12.07031	     109.57304
      12.18750	     109.41085
      12.30469	     110.64009
      12.42188	     111.12666
      12.53906	     108.15601
      12.65625	     109.74377
      12.77344	     109.49622
      12.89063	     108.65965
      13.00781	     107.66089
      13.12500	     109.59865
      13.24219	     111.79250
      13.35938	     109.10354
      13.47656	     109.14622
      13.59375	     109.94865
      13.71094	     108.63404
      13.82813	     110.29010
      13.94531	     108.61697
      14.06250	     108.73647
      14.17969	     110.14498
      14.29688	     109.69255
      14.41406	     108.48038
      14.53125	     108.77062
      14.64844	     109.00964
      14.76563	     109.22305
      14.88281	     110.58887
      15.00000	     109.47060
      15.11719	     108.94989
      15.23438	     109.24866
      15.35156	     108.10478
      15.46875	     106.26946
      15.58594	     109.75230
      15.70313	     109.94865
      15.82031	     109.88889
      15.93750	     110.63155
      16.05469	     109.42793
      16.17188	     108.48038
      16.28906	     110.59741
      16.40625	     111.57056
      16.52344	     111.53641
      16.64063	     108.88159
      16.75781	     109.87182
      16.87500	     111.14374
      16.99219	     108.13893
      17.10938	     107.89137
      17.22656	     109.78645
      17.34375	     108.81330
      17.46094	     109.14622
      17.57813	     110.27303
      17.69531	     109.14622
      17.81250	     109.72670
      17.92969	     110.37547
      18.04688	     109.40231
      18.16406	     107.36212
      18.28125	     109.83767
      18.39844	     108.90720
      18.51563	     112.46688
      18.63281	     108.09624
      18.75000	     107.42188
      18.86719	     112.60346
      18.98438	     108.41209
      19.10156	     112.94492
      19.21875	     108.09624
      19.33594	     109.98279
      19.45313	     109.94011
      19.57031	     107.78894
      19.68750	     108.33527
      19.80469	     108.99257
      19.92188	     110.11083
      20.03906	     110.18766
      20.15625	     110.71692
      20.27344	     110.21327
      20.39063	     107.43041
      20.50781	     109.47060
      20.62500	     107.44748
      20.74219	     106.27800
      20.85938	     110.92179
      20.97656	     108.21576
      21.09375	     109.24012
      21.21094	     110.93887
      21.32813	     108.84745
      21.44531	     109.44500
      21.56250	     108.76208
      21.67969	     110.77667
      21.79688	     112.00591
      21.91406	     108.36942
      22.03125	     109.20598
      22.14844	     107.48163
      22.26563	     108.83891
      22.38281	     108.02795
      22.50000	     110.32424
      22.61719	     108.07918
      22.73438	     106.84994
      22.85156	     110.35839
      22.96875	     110.51205
      23.08594	     109.95718
      23.20313	     110.65717
      23.32031	     109.51329
      23.43750	     108.63404
      23.55469	     107.05481
      23.67188	     109.32549
      23.78906	     109.88036
      23.90625	     107.39626
      24.02344	     107.84869
      24.14063	     106.91823
      24.25781	     109.40231
      24.37500	     108.64258
      24.49219	     109.44500
      24.60938	     111.26324
      24.72656	     109.32549
      24.84375	     108.32673
      24.96094	     109.84621
      25.07813	     108.66818
      25.19531	     111.22057
      25.31250	     109.21452
      25.42969	     108.79623
      25.54688	     109.64987
      25.66406	     109.95718
      25.78125	     109.04379
      25.89844	     107.33651
      26.01563	     109.09501
      26.13281	     105.91947
      26.25000	     107.61821
      26.36719	     111.71568
      26.48438	     110.23888
      26.60156	     110.70838
      26.71875	     112.37298
      26.83594	     112.91077
      26.95313	     107.56699
      27.07031	     110.10229
      27.18750	     107.80601
      27.30469	     107.66089
      27.42188	     109.82913
      27.53906	     107.67796
      27.65625	     109.28281
      27.77344	     108.07918
      27.89063	     108.65112
      28.00781	     109.08647
      28.12500	     108.15601
      28.24219	     108.88159
      28.35938	     109.07793
      28.47656	     109.47060
      28.59375	     112.13396
      28.71094	     109.18890
      28.82813	     110.37547
      28.94531	     109.69255
      29.06250	     108.52306
      29.17969	     110.97301
      29.29688	     111.71568
      29.41406	     107.04627
      29.53125	     110.74253
      29.64844	     108.38648
      29.76563	     108.94989
      29.88281	     106.37189
