ALV-5000/E-WIN Data
Date :	"29/06/18"
Time :	"08:25:40"
Samplename : 	""
SampMemo(0) : 	""
SampMemo(1) : 	""
SampMemo(2) : 	""
SampMemo(3) : 	""
SampMemo(4) : 	""
SampMemo(5) : 	""
SampMemo(6) : 	""
SampMemo(7) : 	""
SampMemo(8) : 	""
SampMemo(9) : 	""
Temperature [K] :	     298.16000
Viscosity [cp]  :	       0.89000
Refractive Index:	       1.33200
Wavelength [nm] :	     632.80000
Angle [°]       :	      90.00000
Duration [s]    :	        30
Runs            :	         1
Mode            :	"SINGLE AUTO CH1"
MeanCR0 [kHz]   :	     109.29853
MeanCR1 [kHz]   :	       0.00000

"Correlation"
  2.00000E-004	  8.39759E-002
  4.00000E-004	  3.68501E-002
  6.00000E-004	  3.32381E-002
  8.00000E-004	  2.30624E-002
  1.00000E-003	  2.81924E-002
  1.20000E-003	  2.92605E-002
  1.40000E-003	  2.87124E-002
  1.60000E-003	  2.07855E-002
  1.80000E-003	  2.31748E-002
  2.00000E-003	  1.93238E-002
  2.20000E-003	  2.68431E-002
  2.40000E-003	  2.60982E-002
  2.60000E-003	  2.37230E-002
  2.80000E-003	  1.89162E-002
  3.00000E-003	  1.46857E-002
  3.20000E-003	  1.85336E-002
  3.60000E-003	  1.87866E-002
  4.00000E-003	  2.19911E-002
  4.40000E-003	  2.08526E-002
  4.80000E-003	  2.20473E-002
  5.20000E-003	  2.11970E-002
  5.60000E-003	  2.29609E-002
  6.00000E-003	  2.22722E-002
  6.40000E-003	  2.36828E-002
  7.20000E-003	  1.74179E-002
  8.00000E-003	  1.93677E-002
  8.80000E-003	  1.49126E-002
  9.60000E-003	  1.85036E-002
  1.04000E-002	  1.66382E-002
  1.12000E-002	  2.26536E-002
  1.20000E-002	  2.11111E-002
  1.28000E-002	  1.83973E-002
  1.44000E-002	  1.82251E-002
  1.60000E-002	  1.63625E-002
  1.76000E-002	  1.67596E-002
  1.92000E-002	  1.61675E-002
  2.08000E-002	  1.66753E-002
  2.24000E-002	  1.66662E-002
  2.40000E-002	  1.69279E-002
  2.56000E-002	  1.50291E-002
  2.88000E-002	  1.53243E-002
  3.20000E-002	  1.38968E-002
  3.52000E-002	  1.36342E-002
  3.84000E-002	  1.27677E-002
  4.16000E-002	  1.33405E-002
  4.48000E-002	  1.37885E-002
  4.80000E-002	  1.23338E-002
  5.12000E-002	  1.04868E-002
  5.76000E-002	  9.91794E-003
  6.40000E-002	  1.08186E-002
  7.04000E-002	  9.66237E-003
  7.68000E-002	  9.63496E-003
  8.32000E-002	  7.90801E-003
  8.96000E-002	  8.84917E-003
  9.60000E-002	  7.30229E-003
  1.02400E-001	  7.80551E-003
  1.15200E-001	  6.34682E-003
  1.28000E-001	  5.90301E-003
  1.40800E-001	  5.39007E-003
  1.53600E-001	  6.23215E-003
  1.66400E-001	  5.26208E-003
  1.79200E-001	  5.08051E-003
  1.92000E-001	  4.51438E-003
  2.04800E-001	  4.17668E-003
  2.30400E-001	  4.03345E-003
  2.56000E-001	  3.53548E-003
  2.81600E-001	  2.96506E-003
  3.07200E-001	  3.07930E-003
  3.32800E-001	  2.77390E-003
  3.58400E-001	  2.91776E-003
  3.84000E-001	  2.30118E-003
  4.09600E-001	  2.32692E-003
  4.60800E-001	  1.99274E-003
  5.12000E-001	  2.02784E-003
  5.63200E-001	  2.17543E-003
  6.14400E-001	  1.51676E-003
  6.65600E-001	  1.30104E-003
  7.16800E-001	  1.18622E-003
  7.68000E-001	  1.31881E-003
  8.19200E-001	  1.21315E-003
  9.21600E-001	  1.13208E-003
  1.02400E+000	  8.76184E-004
  1.12640E+000	  1.24707E-003
  1.22880E+000	  8.98091E-004
  1.33120E+000	  7.00311E-004
  1.43360E+000	  7.25028E-004
  1.53600E+000	  3.20831E-004
  1.63840E+000	  5.71324E-004
  1.84320E+000	  3.78379E-004
  2.04800E+000	  3.76852E-004
  2.25280E+000	  3.66904E-004
  2.45760E+000	  3.15851E-004
  2.66240E+000	  4.21756E-004
  2.86720E+000	  8.38573E-005
  3.07200E+000	  2.95782E-004
  3.22560E+000	  2.67424E-004
  3.63520E+000	  3.53787E-004
  4.04480E+000	  1.15911E-004
  4.45440E+000	  1.19163E-004
  4.86400E+000	  4.80814E-005
  5.27360E+000	  1.40053E-004
  5.68320E+000	  1.48456E-004
  6.09280E+000	 -1.18515E-005
  6.50240E+000	  1.91898E-006
  7.32160E+000	  1.51692E-005
  8.14080E+000	  3.64941E-005
  8.96000E+000	  6.62869E-005
  9.77920E+000	  1.96140E-005
  1.05984E+001	  9.60905E-005
  1.14176E+001	  1.91428E-004
  1.22368E+001	  7.22749E-005
  1.30560E+001	  1.61943E-005
  1.46944E+001	 -7.37541E-005
  1.63328E+001	 -7.38268E-005
  1.79712E+001	 -5.08929E-006
  1.96096E+001	  1.78757E-005
  2.12480E+001	  1.92635E-006
  2.28864E+001	 -6.98246E-005
  2.45248E+001	 -3.24061E-005
  2.61632E+001	 -7.03125E-005
  2.94400E+001	  1.53309E-004
  3.27168E+001	  4.89532E-005
  3.59936E+001	 -4.90708E-005
  3.92704E+001	  7.13919E-005
  4.25472E+001	  3.70243E-006
  4.58240E+001	  3.03779E-005
  4.91008E+001	  1.06277E-004
  5.23776E+001	  4.60563E-005
  5.89312E+001	  2.76032E-005
  6.54848E+001	 -1.45655E-005
  7.20384E+001	 -8.20381E-006
  7.85920E+001	  6.69392E-005
  8.51456E+001	 -3.63505E-005
  9.16992E+001	 -1.93966E-005
  9.82528E+001	  5.75517E-006
  1.04806E+002	 -1.40482E-005
  1.17914E+002	 -2.20782E-005
  1.31021E+002	  6.62806E-006
  1.44128E+002	 -2.72963E-005
  1.57235E+002	 -2.96036E-006
  1.70342E+002	 -3.69695E-005
  1.83450E+002	 -6.39528E-006
  1.96557E+002	 -1.09980E-005
  2.09664E+002	  4.08784E-005
  2.35878E+002	 -1.16227E-005
  2.62093E+002	  2.94155E-006
  2.88307E+002	  6.14271E-005
  3.14522E+002	  2.54184E-005
  3.40736E+002	  2.01189E-006
  3.66950E+002	 -1.03813E-005
  3.93165E+002	 -3.53833E-006
  4.19379E+002	 -9.01545E-006
  4.71808E+002	 -7.38251E-006
  5.24237E+002	 -3.37695E-005
  5.76666E+002	  1.79344E-006
  6.29094E+002	  2.14638E-005
  6.81523E+002	 -5.87312E-006
  7.33952E+002	 -1.58243E-005
  7.86381E+002	  5.26741E-007
  8.38810E+002	  9.60700E-006
  9.43667E+002	  1.78130E-006
  1.04852E+003	  9.83579E-006
  1.15338E+003	  1.06894E-005
  1.25824E+003	  9.68049E-006
  1.36310E+003	 -3.72376E-006
  1.46796E+003	 -6.64843E-006
  1.57281E+003	  4.65422E-006
  1.67767E+003	  3.21914E-006
  1.88739E+003	 -2.62462E-006
  2.09710E+003	  2.83535E-006
  2.30682E+003	 -4.16994E-006
  2.51653E+003	  7.25323E-007
  2.72625E+003	  5.00054E-006
  2.93596E+003	 -3.45267E-006
  3.14568E+003	 -1.29287E-005
  3.35539E+003	 -1.01414E-005
  3.77482E+003	 -1.59670E-006
  4.19425E+003	 -7.88142E-006
  4.61368E+003	 -1.44392E-005
  5.03311E+003	  1.17589E-006
  5.45254E+003	 -4.65672E-006
  5.87197E+003	 -6.95443E-007
  6.29140E+003	  1.83636E-005

"Count Rate"
       0.11719	     111.05837
       0.23438	     109.48768
       0.35156	     109.37671
       0.46875	     108.06210
       0.58594	     109.41085
       0.70313	     106.76457
       0.82031	     109.48768
       0.93750	     108.59136
       1.05469	     110.12791
       1.17188	     111.12666
       1.28906	     107.13164
       1.40625	     107.53284
       1.52344	     109.16330
       1.64063	     107.69504
       1.75781	     109.75230
       1.87500	     108.83038
       1.99219	     108.26698
       2.10938	     107.93406
       2.22656	     107.95966
       2.34375	     107.31090
       2.46094	     108.83891
       2.57813	     108.94135
       2.69531	     109.21452
       2.81250	     110.05962
       2.92969	     111.71568
       3.04688	     107.66089
       3.16406	     109.75230
       3.28125	     109.59012
       3.39844	     110.26449
       3.51563	     112.09128
       3.63281	     107.15724
       3.75000	     110.52912
       3.86719	     109.60719
       3.98438	     110.86204
       4.10156	     110.05962
       4.21875	     110.16206
       4.33594	     110.12791
       4.45313	     110.28156
       4.57031	     108.96696
       4.68750	     109.56451
       4.80469	     108.38648
       4.92188	     109.35110
       5.03906	     110.22181
       5.15625	     111.74129
       5.27344	     108.19868
       5.39063	     110.66570
       5.50781	     109.18037
       5.62500	     110.87057
       5.74219	     110.33278
       5.85938	     109.76084
       5.97656	     109.92303
       6.09375	     109.28281
       6.21094	     110.90472
       6.32813	     111.94616
       6.44531	     111.38276
       6.56250	     109.00111
       6.67969	     107.15724
       6.79688	     106.26946
       6.91406	     111.21203
       7.03125	     109.92303
       7.14844	     110.31571
       7.26563	     108.77062
       7.38281	     109.23159
       7.50000	     111.98030
       7.61719	     107.08042
       7.73438	     111.49373
       7.85156	     108.53160
       7.96875	     109.64987
       8.08594	     110.67424
       8.20313	     109.39378
       8.32031	     108.33527
       8.43750	     110.04254
       8.55469	     108.10478
       8.67188	     110.41814
       8.78906	     108.29259
       8.90625	     109.02671
       9.02344	     108.92428
       9.14063	     110.59741
       9.25781	     107.46455
       9.37500	     110.32424
       9.49219	     110.99862
       9.60938	     110.90472
       9.72656	     107.09749
       9.84375	     110.58887
       9.96094	     107.08042
      10.07813	     105.76582
      10.19531	     108.60843
      10.31250	     109.84621
      10.42969	     109.59865
      10.54688	     108.39502
      10.66406	     109.45354
      10.78125	     108.74501
      10.89844	     109.22305
      11.01563	     107.95113
      11.13281	     109.66695
      11.25000	     106.76457
      11.36719	     111.76689
      11.48438	     107.78894
      11.60156	     108.36942
      11.71875	     111.26324
      11.83594	     109.60719
      11.95313	     111.24618
      12.07031	     107.40480
      12.18750	     109.99986
      12.30469	     111.24618
      12.42188	     109.64133
      12.53906	     109.20598
      12.65625	     107.67796
      12.77344	     108.93282
      12.89063	     109.91450
      13.00781	     108.30112
      13.12500	     106.82433
      13.24219	     108.59989
      13.35938	     108.03649
      13.47656	     111.39983
      13.59375	     109.37671
      13.71094	     107.43895
      13.82813	     110.96447
      13.94531	     110.56326
      14.06250	     107.63528
      14.17969	     106.67067
      14.29688	     108.19868
      14.41406	     110.57180
      14.53125	     109.13769
      14.64844	     112.59492
      14.76563	     108.00235
      14.88281	     108.08772
      15.00000	     106.48287
      15.11719	     110.67424
      15.23438	     108.00235
      15.35156	     108.97549
      15.46875	     110.66570
      15.58594	     110.62302
      15.70313	     108.26698
      15.82031	     110.06815
      15.93750	     108.36942
      16.05469	     106.61092
      16.17188	     108.59989
      16.28906	     106.96091
      16.40625	     110.67424
      16.52344	     109.81207
      16.64063	     109.62426
      16.75781	     109.18037
      16.87500	     108.13039
      16.99219	     110.40961
      17.10938	     106.01337
      17.22656	     110.05962
      17.34375	     109.69255
      17.46094	     108.43771
      17.57813	     108.59136
      17.69531	     109.57304
      17.81250	     109.83767
      17.92969	     110.09377
      18.04688	     111.24618
      18.16406	     110.64863
      18.28125	     111.00716
      18.39844	     112.88516
      18.51563	     108.70233
      18.63281	     108.58282
      18.75000	     110.32424
      18.86719	     108.77062
      18.98438	     109.08647
      19.10156	     109.94865
      19.21875	     108.75355
      19.33594	     109.90596
      19.45313	     108.64258
      19.57031	     107.80601
      19.68750	     110.79375
      19.80469	     109.65841
      19.92188	     109.92303
      20.03906	     110.05962
      20.15625	     110.35839
      20.27344	     109.42793
      20.39063	     110.15352
      20.50781	     110.29864
      20.62500	     108.26698
      20.74219	     112.03152
      20.85938	     110.76814
      20.97656	     109.66695
      21.09375	     108.43771
      21.21094	     106.42312
      21.32813	     109.03525
      21.44531	     107.05481
      21.56250	     109.80353
      21.67969	     106.48287
      21.79688	     107.75479
      21.91406	     110.38400
      22.03125	     109.64133
      22.14844	     108.58282
      22.26563	     109.34256
      22.38281	     107.54138
      22.50000	     106.81579
      22.61719	     109.22305
      22.73438	     107.09749
      22.85156	     110.95594
      22.96875	     109.03525
      23.08594	     106.73042
      23.20313	     110.95594
      23.32031	     108.39502
      23.43750	     107.95113
      23.55469	     107.30236
      23.67188	     108.58282
      23.78906	     110.75106
      23.90625	     109.81207
      24.02344	     112.53517
      24.14063	     105.86825
      24.25781	     110.12791
      24.37500	     109.82913
      24.49219	     109.53889
      24.60938	     112.91077
      24.72656	     108.07064
      24.84375	     109.00111
      24.96094	     109.90596
      25.07813	     107.96820
      25.19531	     108.94989
      25.31250	     109.01818
      25.42969	     109.12061
      25.54688	     109.86328
      25.66406	     113.40588
      25.78125	     107.51577
      25.89844	     110.46082
      26.01563	     109.93157
      26.13281	     108.70233
      26.25000	     107.37919
      26.36719	     108.40356
      26.48438	     111.92908
      26.60156	     108.32673
      26.71875	     109.24012
      26.83594	     112.99613
      26.95313	     110.03400
      27.07031	     109.35963
      27.18750	     110.13644
      27.30469	     109.86328
      27.42188	     109.05232
      27.53906	     106.29507
      27.65625	     107.37919
      27.77344	     108.65112
      27.89063	     107.93406
      28.00781	     108.19015
      28.12500	     111.30593
      28.24219	     109.01818
      28.35938	     110.40961
      28.47656	     110.24741
      28.59375	     110.51205
      28.71094	     108.66818
      28.82813	     109.01818
      28.94531	     108.13039
      29.06250	     109.40231
      29.17969	     109.38524
      29.29688	     109.77792
      29.41406	     109.07793
      29.53125	     110.17912
      29.64844	     110.50351
      29.76563	     107.38773
      29.88281	     108.59989
